wavelength:cm-1,532.143005
X	Y
60.775025	599.000000
61.224870	590.000000
61.674680	595.000000
62.124455	578.000000
62.574194	601.000000
63.023898	588.000000
63.473566	592.000000
63.923199	584.000000
64.372797	604.000000
64.822359	606.000000
65.271886	586.000000
65.721378	607.000000
66.170834	611.000000
66.620255	596.000000
67.069641	591.000000
67.518991	605.000000
67.968306	598.000000
68.417586	605.000000
68.866830	611.000000
69.316039	612.000000
69.765212	611.000000
70.214350	610.000000
70.663453	620.000000
71.112521	608.000000
71.561553	640.000000
72.010550	634.000000
72.459511	653.000000
72.908437	649.000000
73.357328	674.000000
73.806184	692.000000
74.255004	664.000000
74.703789	719.000000
75.152539	721.000000
75.601253	746.000000
76.049932	762.000000
76.498576	813.000000
76.947184	827.000000
77.395757	845.000000
77.844295	880.000000
78.292798	931.000000
78.741265	922.000000
79.189697	906.000000
79.638094	933.000000
80.086455	893.000000
80.534781	890.000000
80.983072	842.000000
81.431328	828.000000
81.879548	801.000000
82.327733	764.000000
82.775883	745.000000
83.223997	722.000000
83.672077	708.000000
84.120121	661.000000
84.568129	677.000000
85.016103	651.000000
85.464041	650.000000
85.911944	642.000000
86.359812	612.000000
86.807644	610.000000
87.255442	615.000000
87.703204	590.000000
88.150931	581.000000
88.598622	587.000000
89.046278	587.000000
89.493900	586.000000
89.941485	582.000000
90.389036	578.000000
90.836552	573.000000
91.284032	578.000000
91.731477	587.000000
92.178887	567.000000
92.626261	568.000000
93.073600	587.000000
93.520905	578.000000
93.968174	579.000000
94.415407	577.000000
94.862606	598.000000
95.309769	573.000000
95.756897	588.000000
96.203990	569.000000
96.651048	582.000000
97.098071	589.000000
97.545058	564.000000
97.992010	571.000000
98.438928	574.000000
98.885809	574.000000
99.332656	577.000000
99.779468	584.000000
100.226244	577.000000
100.672985	599.000000
101.119691	613.000000
101.566362	598.000000
102.012998	581.000000
102.459598	568.000000
102.906164	585.000000
103.352694	587.000000
103.799189	599.000000
104.245649	584.000000
104.692074	607.000000
105.138464	595.000000
105.584818	600.000000
106.031138	598.000000
106.477422	595.000000
106.923671	596.000000
107.369885	582.000000
107.816064	596.000000
108.262208	614.000000
108.708316	627.000000
109.154390	596.000000
109.600428	609.000000
110.046431	607.000000
110.492400	616.000000
110.938333	643.000000
111.384231	629.000000
111.830093	611.000000
112.275921	625.000000
112.721714	633.000000
113.167471	627.000000
113.613194	631.000000
114.058881	630.000000
114.504534	637.000000
114.950151	618.000000
115.395733	626.000000
115.841280	638.000000
116.286792	649.000000
116.732269	640.000000
117.177710	638.000000
117.623117	628.000000
118.068489	637.000000
118.513825	642.000000
118.959127	645.000000
119.404393	652.000000
119.849625	650.000000
120.294821	635.000000
120.739982	637.000000
121.185109	673.000000
121.630200	658.000000
122.075256	650.000000
122.520277	671.000000
122.965263	674.000000
123.410214	687.000000
123.855130	684.000000
124.300011	712.000000
124.744857	691.000000
125.189668	700.000000
125.634444	708.000000
126.079184	690.000000
126.523890	709.000000
126.968561	713.000000
127.413197	722.000000
127.857798	721.000000
128.302363	711.000000
128.746894	708.000000
129.191390	707.000000
129.635850	721.000000
130.080276	722.000000
130.524667	713.000000
130.969023	704.000000
131.413343	682.000000
131.857629	675.000000
132.301880	654.000000
132.746095	671.000000
133.190276	668.000000
133.634422	638.000000
134.078533	640.000000
134.522609	648.000000
134.966649	653.000000
135.410655	629.000000
135.854626	633.000000
136.298562	661.000000
136.742463	626.000000
137.186329	618.000000
137.630160	599.000000
138.073956	617.000000
138.517717	633.000000
138.961443	625.000000
139.405135	600.000000
139.848791	607.000000
140.292412	619.000000
140.735999	595.000000
141.179550	595.000000
141.623067	603.000000
142.066548	589.000000
142.509995	599.000000
142.953406	588.000000
143.396783	586.000000
143.840125	610.000000
144.283432	582.000000
144.726704	605.000000
145.169941	602.000000
145.613143	587.000000
146.056310	589.000000
146.499443	580.000000
146.942540	580.000000
147.385603	581.000000
147.828630	603.000000
148.271623	577.000000
148.714581	582.000000
149.157504	576.000000
149.600392	589.000000
150.043245	592.000000
150.486063	584.000000
150.928847	581.000000
151.371595	568.000000
151.814309	569.000000
152.256987	592.000000
152.699631	581.000000
153.142240	568.000000
153.584814	581.000000
154.027353	586.000000
154.469858	578.000000
154.912327	585.000000
155.354762	582.000000
155.797162	577.000000
156.239527	581.000000
156.681857	577.000000
157.124152	559.000000
157.566412	570.000000
158.008638	560.000000
158.450828	587.000000
158.892984	571.000000
159.335105	567.000000
159.777191	574.000000
160.219242	576.000000
160.661259	584.000000
161.103241	572.000000
161.545187	586.000000
161.987099	570.000000
162.428977	583.000000
162.870819	585.000000
163.312626	573.000000
163.754399	579.000000
164.196137	573.000000
164.637840	573.000000
165.079508	573.000000
165.521142	578.000000
165.962740	574.000000
166.404304	586.000000
166.845833	576.000000
167.287328	566.000000
167.728787	588.000000
168.170212	586.000000
168.611602	581.000000
169.052957	581.000000
169.494277	578.000000
169.935563	581.000000
170.376813	574.000000
170.818029	577.000000
171.259211	578.000000
171.700357	565.000000
172.141469	591.000000
172.582546	592.000000
173.023588	570.000000
173.464595	597.000000
173.905568	566.000000
174.346506	582.000000
174.787409	571.000000
175.228277	571.000000
175.669111	562.000000
176.109910	568.000000
176.550674	571.000000
176.991403	552.000000
177.432098	581.000000
177.872758	585.000000
178.313383	563.000000
178.753973	587.000000
179.194529	585.000000
179.635050	557.000000
180.075536	569.000000
180.515988	592.000000
180.956405	566.000000
181.396787	575.000000
181.837134	573.000000
182.277447	571.000000
182.717725	587.000000
183.157968	575.000000
183.598177	569.000000
184.038350	576.000000
184.478490	553.000000
184.918594	584.000000
185.358664	571.000000
185.798699	578.000000
186.238699	566.000000
186.678665	592.000000
187.118596	577.000000
187.558492	575.000000
187.998354	573.000000
188.438181	574.000000
188.877973	574.000000
189.317731	582.000000
189.757454	594.000000
190.197142	572.000000
190.636796	576.000000
191.076414	577.000000
191.515999	570.000000
191.955548	578.000000
192.395063	585.000000
192.834544	589.000000
193.273989	591.000000
193.713400	583.000000
194.152777	584.000000
194.592118	572.000000
195.031425	585.000000
195.470698	570.000000
195.909936	582.000000
196.349139	595.000000
196.788307	558.000000
197.227441	580.000000
197.666541	570.000000
198.105605	579.000000
198.544635	577.000000
198.983631	578.000000
199.422591	590.000000
199.861518	586.000000
200.300409	598.000000
200.739266	574.000000
201.178089	573.000000
201.616876	574.000000
202.055629	590.000000
202.494348	579.000000
202.933032	591.000000
203.371681	571.000000
203.810296	580.000000
204.248876	594.000000
204.687422	578.000000
205.125933	563.000000
205.564409	567.000000
206.002851	581.000000
206.441258	586.000000
206.879631	573.000000
207.317969	588.000000
207.756273	568.000000
208.194542	574.000000
208.632776	588.000000
209.070976	578.000000
209.509141	576.000000
209.947272	598.000000
210.385368	575.000000
210.823430	593.000000
211.261457	592.000000
211.699449	607.000000
212.137407	599.000000
212.575331	608.000000
213.013220	574.000000
213.451074	591.000000
213.888894	598.000000
214.326679	613.000000
214.764430	609.000000
215.202146	619.000000
215.639828	604.000000
216.077475	635.000000
216.515087	615.000000
216.952666	622.000000
217.390209	646.000000
217.827718	647.000000
218.265193	618.000000
218.702633	660.000000
219.140038	672.000000
219.577410	666.000000
220.014746	655.000000
220.452048	667.000000
220.889316	673.000000
221.326549	678.000000
221.763747	693.000000
222.200911	701.000000
222.638041	699.000000
223.075136	698.000000
223.512197	684.000000
223.949223	674.000000
224.386215	672.000000
224.823172	691.000000
225.260094	674.000000
225.696983	699.000000
226.133836	655.000000
226.570656	686.000000
227.007441	670.000000
227.444191	677.000000
227.880907	674.000000
228.317588	655.000000
228.754235	640.000000
229.190848	620.000000
229.627426	638.000000
230.063970	630.000000
230.500479	645.000000
230.936954	622.000000
231.373394	593.000000
231.809800	630.000000
232.246172	627.000000
232.682509	599.000000
233.118811	616.000000
233.555080	593.000000
233.991313	600.000000
234.427513	596.000000
234.863678	601.000000
235.299808	610.000000
235.735904	619.000000
236.171966	604.000000
236.607993	598.000000
237.043986	616.000000
237.479944	623.000000
237.915869	616.000000
238.351758	632.000000
238.787613	640.000000
239.223434	623.000000
239.659221	644.000000
240.094973	658.000000
240.530691	656.000000
240.966374	674.000000
241.402023	682.000000
241.837637	693.000000
242.273218	716.000000
242.708763	725.000000
243.144275	762.000000
243.579752	778.000000
244.015195	805.000000
244.450603	816.000000
244.885977	846.000000
245.321316	921.000000
245.756622	979.000000
246.191893	1009.000000
246.627129	1087.000000
247.062331	1089.000000
247.497499	1110.000000
247.932633	1176.000000
248.367732	1221.000000
248.802796	1203.000000
249.237827	1227.000000
249.672823	1258.000000
250.107785	1243.000000
250.542712	1213.000000
250.977605	1198.000000
251.412464	1122.000000
251.847289	1080.000000
252.282079	1049.000000
252.716835	1039.000000
253.151556	976.000000
253.586243	917.000000
254.020896	913.000000
254.455515	904.000000
254.890099	835.000000
255.324649	825.000000
255.759165	801.000000
256.193646	759.000000
256.628093	753.000000
257.062506	750.000000
257.496884	731.000000
257.931229	711.000000
258.365538	706.000000
258.799814	705.000000
259.234055	690.000000
259.668262	716.000000
260.102435	698.000000
260.536574	681.000000
260.970678	715.000000
261.404748	681.000000
261.838783	719.000000
262.272785	706.000000
262.706752	699.000000
263.140685	695.000000
263.574584	700.000000
264.008448	727.000000
264.442278	703.000000
264.876074	727.000000
265.309835	757.000000
265.743563	742.000000
266.177256	762.000000
266.610915	752.000000
267.044539	759.000000
267.478130	793.000000
267.911686	784.000000
268.345208	850.000000
268.778696	860.000000
269.212149	874.000000
269.645568	885.000000
270.078953	924.000000
270.512304	954.000000
270.945621	970.000000
271.378903	975.000000
271.812151	1005.000000
272.245365	981.000000
272.678545	982.000000
273.111690	985.000000
273.544802	984.000000
273.977879	1065.000000
274.410922	1036.000000
274.843931	1014.000000
275.276905	962.000000
275.709845	952.000000
276.142752	939.000000
276.575624	937.000000
277.008461	893.000000
277.441265	861.000000
277.874034	842.000000
278.306770	819.000000
278.739471	806.000000
279.172138	784.000000
279.604770	743.000000
280.037369	738.000000
280.469933	728.000000
280.902464	714.000000
281.334960	741.000000
281.767422	698.000000
282.199849	693.000000
282.632243	679.000000
283.064602	656.000000
283.496928	653.000000
283.929219	654.000000
284.361476	664.000000
284.793699	640.000000
285.225888	656.000000
285.658042	670.000000
286.090163	668.000000
286.522249	633.000000
286.954301	633.000000
287.386319	618.000000
287.818303	638.000000
288.250253	629.000000
288.682169	632.000000
289.114050	606.000000
289.545898	614.000000
289.977711	612.000000
290.409491	618.000000
290.841236	629.000000
291.272947	623.000000
291.704624	617.000000
292.136267	607.000000
292.567875	615.000000
292.999450	616.000000
293.430991	607.000000
293.862497	603.000000
294.293969	598.000000
294.725408	600.000000
295.156812	608.000000
295.588182	594.000000
296.019518	588.000000
296.450820	617.000000
296.882088	610.000000
297.313322	610.000000
297.744522	616.000000
298.175687	605.000000
298.606819	601.000000
299.037917	580.000000
299.468980	595.000000
299.900010	598.000000
300.331005	605.000000
300.761966	603.000000
301.192894	579.000000
301.623787	595.000000
302.054646	585.000000
302.485471	593.000000
302.916263	583.000000
303.347020	599.000000
303.777743	578.000000
304.208432	620.000000
304.639087	589.000000
305.069708	571.000000
305.500295	581.000000
305.930848	589.000000
306.361367	577.000000
306.791852	596.000000
307.222302	576.000000
307.652719	573.000000
308.083102	579.000000
308.513451	572.000000
308.943766	594.000000
309.374047	586.000000
309.804294	581.000000
310.234506	581.000000
310.664685	589.000000
311.094830	566.000000
311.524941	585.000000
311.955018	587.000000
312.385061	569.000000
312.815070	591.000000
313.245045	578.000000
313.674986	578.000000
314.104892	580.000000
314.534765	577.000000
314.964604	572.000000
315.394410	576.000000
315.824181	579.000000
316.253918	567.000000
316.683621	570.000000
317.113290	576.000000
317.542925	577.000000
317.972527	576.000000
318.402094	566.000000
318.831627	574.000000
319.261127	567.000000
319.690592	575.000000
320.120024	570.000000
320.549421	576.000000
320.978785	570.000000
321.408115	584.000000
321.837411	573.000000
322.266672	580.000000
322.695900	556.000000
323.125094	569.000000
323.554254	578.000000
323.983381	563.000000
324.412473	571.000000
324.841531	567.000000
325.270556	576.000000
325.699546	558.000000
326.128503	572.000000
326.557425	550.000000
326.986314	571.000000
327.415169	585.000000
327.843990	562.000000
328.272777	561.000000
328.701530	589.000000
329.130249	570.000000
329.558935	569.000000
329.987586	585.000000
330.416204	588.000000
330.844788	556.000000
331.273337	592.000000
331.701853	580.000000
332.130336	569.000000
332.558784	572.000000
332.987198	574.000000
333.415579	581.000000
333.843925	558.000000
334.272238	563.000000
334.700517	563.000000
335.128762	575.000000
335.556973	568.000000
335.985150	588.000000
336.413294	567.000000
336.841404	564.000000
337.269479	587.000000
337.697521	583.000000
338.125529	585.000000
338.553504	575.000000
338.981444	584.000000
339.409351	573.000000
339.837223	581.000000
340.265062	582.000000
340.692867	553.000000
341.120638	566.000000
341.548376	562.000000
341.976080	556.000000
342.403749	567.000000
342.831385	581.000000
343.258987	580.000000
343.686556	568.000000
344.114090	592.000000
344.541591	580.000000
344.969058	588.000000
345.396491	586.000000
345.823890	585.000000
346.251256	579.000000
346.678588	572.000000
347.105886	590.000000
347.533150	592.000000
347.960380	565.000000
348.387577	567.000000
348.814740	584.000000
349.241869	574.000000
349.668964	590.000000
350.096025	604.000000
350.523053	569.000000
350.950047	598.000000
351.377007	592.000000
351.803933	582.000000
352.230826	576.000000
352.657685	591.000000
353.084510	591.000000
353.511301	567.000000
353.938059	572.000000
354.364783	583.000000
354.791473	587.000000
355.218129	584.000000
355.644752	590.000000
356.071341	572.000000
356.497896	581.000000
356.924417	568.000000
357.350905	584.000000
357.777359	589.000000
358.203779	572.000000
358.630165	595.000000
359.056518	592.000000
359.482837	596.000000
359.909122	579.000000
360.335374	567.000000
360.761592	618.000000
361.187776	604.000000
361.613926	599.000000
362.040043	589.000000
362.466126	600.000000
362.892175	591.000000
363.318191	594.000000
363.744173	599.000000
364.170121	622.000000
364.596035	609.000000
365.021916	605.000000
365.447763	616.000000
365.873577	601.000000
366.299357	611.000000
366.725103	619.000000
367.150815	613.000000
367.576494	606.000000
368.002139	627.000000
368.427750	626.000000
368.853328	635.000000
369.278872	650.000000
369.704382	670.000000
370.129859	655.000000
370.555302	668.000000
370.980711	668.000000
371.406087	718.000000
371.831429	717.000000
372.256737	731.000000
372.682012	764.000000
373.107253	750.000000
373.532461	821.000000
373.957635	844.000000
374.382775	885.000000
374.807881	924.000000
375.232954	1003.000000
375.657994	1049.000000
376.082999	1114.000000
376.507971	1101.000000
376.932910	1223.000000
377.357814	1287.000000
377.782686	1297.000000
378.207523	1361.000000
378.632327	1409.000000
379.057097	1407.000000
379.481834	1358.000000
379.906537	1339.000000
380.331207	1356.000000
380.755843	1236.000000
381.180445	1163.000000
381.605014	1095.000000
382.029549	1047.000000
382.454050	994.000000
382.878518	900.000000
383.302952	870.000000
383.727353	810.000000
384.151720	778.000000
384.576054	749.000000
385.000354	736.000000
385.424620	699.000000
385.848853	674.000000
386.273052	681.000000
386.697218	654.000000
387.121350	635.000000
387.545448	639.000000
387.969513	633.000000
388.393545	617.000000
388.817543	611.000000
389.241507	601.000000
389.665438	600.000000
390.089335	610.000000
390.513199	588.000000
390.937029	589.000000
391.360825	600.000000
391.784588	599.000000
392.208318	565.000000
392.632014	596.000000
393.055676	593.000000
393.479305	570.000000
393.902900	583.000000
394.326462	588.000000
394.749990	586.000000
395.173485	575.000000
395.596946	584.000000
396.020374	563.000000
396.443768	584.000000
396.867129	576.000000
397.290456	567.000000
397.713750	587.000000
398.137010	579.000000
398.560237	579.000000
398.983430	573.000000
399.406589	570.000000
399.829716	562.000000
400.252808	580.000000
400.675867	586.000000
401.098893	577.000000
401.521885	570.000000
401.944844	556.000000
402.367769	573.000000
402.790661	590.000000
403.213519	568.000000
403.636344	587.000000
404.059135	562.000000
404.481893	570.000000
404.904618	564.000000
405.327308	561.000000
405.749966	582.000000
406.172590	571.000000
406.595180	571.000000
407.017737	580.000000
407.440261	567.000000
407.862751	564.000000
408.285208	578.000000
408.707631	569.000000
409.130021	575.000000
409.552377	564.000000
409.974700	558.000000
410.396990	576.000000
410.819246	570.000000
411.241469	553.000000
411.663658	570.000000
412.085814	582.000000
412.507936	579.000000
412.930025	581.000000
413.352080	573.000000
413.774102	579.000000
414.196091	567.000000
414.618046	578.000000
415.039968	579.000000
415.461857	561.000000
415.883712	574.000000
416.305533	547.000000
416.727321	562.000000
417.149076	583.000000
417.570798	566.000000
417.992486	571.000000
418.414140	585.000000
418.835762	570.000000
419.257349	560.000000
419.678904	571.000000
420.100425	572.000000
420.521913	557.000000
420.943367	570.000000
421.364788	572.000000
421.786175	532.000000
422.207530	579.000000
422.628850	566.000000
423.050138	568.000000
423.471392	571.000000
423.892613	577.000000
424.313800	556.000000
424.734954	558.000000
425.156075	575.000000
425.577162	569.000000
425.998216	566.000000
426.419237	556.000000
426.840224	563.000000
427.261178	560.000000
427.682098	573.000000
428.102986	578.000000
428.523840	576.000000
428.944660	584.000000
429.365447	584.000000
429.786201	579.000000
430.206922	567.000000
430.627609	575.000000
431.048263	565.000000
431.468884	573.000000
431.889471	575.000000
432.310025	578.000000
432.730546	562.000000
433.151033	567.000000
433.571487	570.000000
433.991908	562.000000
434.412295	582.000000
434.832649	583.000000
435.252970	564.000000
435.673258	575.000000
436.093512	557.000000
436.513733	567.000000
436.933921	550.000000
437.354075	575.000000
437.774196	591.000000
438.194284	546.000000
438.614339	585.000000
439.034360	574.000000
439.454348	559.000000
439.874303	573.000000
440.294224	564.000000
440.714112	562.000000
441.133967	556.000000
441.553789	565.000000
441.973577	564.000000
442.393332	571.000000
442.813054	568.000000
443.232743	564.000000
443.652398	561.000000
444.072020	590.000000
444.491609	555.000000
444.911165	560.000000
445.330687	574.000000
445.750176	559.000000
446.169632	587.000000
446.589055	581.000000
447.008444	567.000000
447.427801	566.000000
447.847124	559.000000
448.266413	568.000000
448.685670	574.000000
449.104893	574.000000
449.524083	587.000000
449.943240	578.000000
450.362364	554.000000
450.781454	577.000000
451.200512	555.000000
451.619536	565.000000
452.038526	576.000000
452.457484	561.000000
452.876408	571.000000
453.295300	576.000000
453.714158	571.000000
454.132983	571.000000
454.551774	579.000000
454.970533	565.000000
455.389258	574.000000
455.807950	568.000000
456.226609	565.000000
456.645235	570.000000
457.063827	579.000000
457.482387	570.000000
457.900913	565.000000
458.319406	559.000000
458.737866	573.000000
459.156293	580.000000
459.574686	568.000000
459.993047	570.000000
460.411374	562.000000
460.829668	583.000000
461.247929	552.000000
461.666157	573.000000
462.084351	565.000000
462.502513	575.000000
462.920641	569.000000
463.338736	566.000000
463.756798	561.000000
464.174827	570.000000
464.592823	563.000000
465.010786	563.000000
465.428715	566.000000
465.846612	564.000000
466.264475	573.000000
466.682305	567.000000
467.100102	578.000000
467.517866	565.000000
467.935597	559.000000
468.353295	569.000000
468.770959	565.000000
469.188591	576.000000
469.606189	561.000000
470.023755	562.000000
470.441287	570.000000
470.858786	580.000000
471.276252	582.000000
471.693685	582.000000
472.111084	577.000000
472.528451	563.000000
472.945785	593.000000
473.363085	563.000000
473.780353	553.000000
474.197587	560.000000
474.614788	584.000000
475.031957	564.000000
475.449092	568.000000
475.866194	570.000000
476.283263	571.000000
476.700299	588.000000
477.117302	563.000000
477.534272	567.000000
477.951208	570.000000
478.368112	561.000000
478.784983	563.000000
479.201820	571.000000
479.618625	575.000000
480.035396	566.000000
480.452135	572.000000
480.868840	557.000000
481.285513	563.000000
481.702152	572.000000
482.118758	570.000000
482.535331	585.000000
482.951872	576.000000
483.368379	567.000000
483.784853	567.000000
484.201294	566.000000
484.617702	564.000000
485.034077	572.000000
485.450420	577.000000
485.866729	615.000000
486.283005	568.000000
486.699248	589.000000
487.115458	579.000000
487.531635	565.000000
487.947779	583.000000
488.363890	577.000000
488.779968	579.000000
489.196013	574.000000
489.612025	557.000000
490.028004	575.000000
490.443950	605.000000
490.859863	573.000000
491.275744	581.000000
491.691591	590.000000
492.107405	575.000000
492.523186	578.000000
492.938934	572.000000
493.354649	576.000000
493.770332	583.000000
494.185981	567.000000
494.601597	565.000000
495.017181	564.000000
495.432731	567.000000
495.848249	584.000000
496.263733	568.000000
496.679185	555.000000
497.094603	583.000000
497.509989	565.000000
497.925341	588.000000
498.340661	589.000000
498.755948	588.000000
499.171202	569.000000
499.586423	570.000000
500.001611	580.000000
500.416766	577.000000
500.831888	581.000000
501.246977	591.000000
501.662033	568.000000
502.077057	586.000000
502.492047	583.000000
502.907005	563.000000
503.321929	573.000000
503.736821	591.000000
504.151680	567.000000
504.566506	583.000000
504.981299	561.000000
505.396059	590.000000
505.810786	589.000000
506.225480	570.000000
506.640141	584.000000
507.054770	577.000000
507.469365	567.000000
507.883928	585.000000
508.298458	589.000000
508.712955	568.000000
509.127419	567.000000
509.541850	569.000000
509.956248	571.000000
510.370614	594.000000
510.784946	577.000000
511.199246	559.000000
511.613513	596.000000
512.027746	571.000000
512.441947	572.000000
512.856116	568.000000
513.270251	584.000000
513.684353	574.000000
514.098423	570.000000
514.512460	579.000000
514.926464	576.000000
515.340435	570.000000
515.754373	570.000000
516.168278	576.000000
516.582151	573.000000
516.995990	576.000000
517.409797	580.000000
517.823571	576.000000
518.237312	587.000000
518.651021	571.000000
519.064696	562.000000
519.478339	572.000000
519.891949	576.000000
520.305526	597.000000
520.719070	576.000000
521.132581	577.000000
521.546060	584.000000
521.959506	581.000000
522.372919	577.000000
522.786299	594.000000
523.199646	575.000000
523.612961	582.000000
524.026243	598.000000
524.439492	582.000000
524.852708	587.000000
525.265891	577.000000
525.679042	578.000000
526.092160	569.000000
526.505245	582.000000
526.918297	584.000000
527.331316	578.000000
527.744303	582.000000
528.157257	560.000000
528.570178	586.000000
528.983066	579.000000
529.395922	573.000000
529.808745	595.000000
530.221535	573.000000
530.634292	586.000000
531.047017	564.000000
531.459708	582.000000
531.872367	566.000000
532.284994	578.000000
532.697587	561.000000
533.110148	582.000000
533.522676	588.000000
533.935171	592.000000
534.347634	566.000000
534.760063	583.000000
535.172461	572.000000
535.584825	574.000000
535.997156	583.000000
536.409455	589.000000
536.821721	573.000000
537.233955	587.000000
537.646155	564.000000
538.058323	595.000000
538.470459	576.000000
538.882561	596.000000
539.294631	574.000000
539.706668	593.000000
540.118672	571.000000
540.530644	576.000000
540.942583	585.000000
541.354489	571.000000
541.766363	579.000000
542.178204	572.000000
542.590012	593.000000
543.001788	591.000000
543.413530	590.000000
543.825240	581.000000
544.236918	577.000000
544.648563	565.000000
545.060175	577.000000
545.471754	580.000000
545.883301	569.000000
546.294815	591.000000
546.706296	574.000000
547.117745	581.000000
547.529161	569.000000
547.940544	593.000000
548.351895	570.000000
548.763213	592.000000
549.174498	570.000000
549.585751	577.000000
549.996971	577.000000
550.408159	577.000000
550.819313	587.000000
551.230435	573.000000
551.641525	588.000000
552.052582	579.000000
552.463606	576.000000
552.874597	571.000000
553.285556	582.000000
553.696483	584.000000
554.107376	592.000000
554.518237	587.000000
554.929066	570.000000
555.339862	590.000000
555.750625	590.000000
556.161355	602.000000
556.572053	602.000000
556.982718	586.000000
557.393351	613.000000
557.803951	620.000000
558.214519	629.000000
558.625054	622.000000
559.035556	634.000000
559.446026	656.000000
559.856463	675.000000
560.266867	658.000000
560.677239	669.000000
561.087578	671.000000
561.497885	711.000000
561.908159	716.000000
562.318401	718.000000
562.728610	709.000000
563.138786	737.000000
563.548930	733.000000
563.959041	736.000000
564.369120	752.000000
564.779166	722.000000
565.189179	724.000000
565.599160	722.000000
566.009109	722.000000
566.419024	693.000000
566.828908	709.000000
567.238758	682.000000
567.648577	642.000000
568.058362	659.000000
568.468115	647.000000
568.877836	641.000000
569.287524	620.000000
569.697179	623.000000
570.106802	585.000000
570.516392	608.000000
570.925950	592.000000
571.335475	576.000000
571.744968	593.000000
572.154428	601.000000
572.563856	592.000000
572.973251	587.000000
573.382614	589.000000
573.791944	580.000000
574.201242	592.000000
574.610507	602.000000
575.019739	579.000000
575.428939	587.000000
575.838107	570.000000
576.247242	572.000000
576.656345	578.000000
577.065415	587.000000
577.474452	578.000000
577.883457	589.000000
578.292430	577.000000
578.701370	569.000000
579.110277	566.000000
579.519153	565.000000
579.927995	579.000000
580.336805	572.000000
580.745583	565.000000
581.154328	583.000000
581.563041	577.000000
581.971721	583.000000
582.380369	570.000000
582.788984	580.000000
583.197567	568.000000
583.606117	562.000000
584.014635	561.000000
584.423120	577.000000
584.831573	570.000000
585.239994	574.000000
585.648382	578.000000
586.056738	566.000000
586.465061	569.000000
586.873352	579.000000
587.281610	567.000000
587.689836	584.000000
588.098029	582.000000
588.506190	572.000000
588.914319	570.000000
589.322415	564.000000
589.730478	581.000000
590.138510	600.000000
590.546508	576.000000
590.954475	561.000000
591.362409	576.000000
591.770310	570.000000
592.178179	550.000000
592.586016	575.000000
592.993820	584.000000
593.401592	591.000000
593.809332	559.000000
594.217039	562.000000
594.624714	600.000000
595.032356	569.000000
595.439966	569.000000
595.847543	559.000000
596.255088	564.000000
596.662601	562.000000
597.070081	578.000000
597.477529	572.000000
597.884945	566.000000
598.292328	554.000000
598.699679	566.000000
599.106997	597.000000
599.514283	574.000000
