wavelength:cm-1,532.143005
X	Y
60.775025	574.000000
61.224870	591.000000
61.674680	609.000000
62.124455	572.000000
62.574194	588.000000
63.023898	592.000000
63.473566	575.000000
63.923199	589.000000
64.372797	597.000000
64.822359	593.000000
65.271886	588.000000
65.721378	601.000000
66.170834	600.000000
66.620255	606.000000
67.069641	618.000000
67.518991	610.000000
67.968306	605.000000
68.417586	610.000000
68.866830	607.000000
69.316039	616.000000
69.765212	613.000000
70.214350	635.000000
70.663453	624.000000
71.112521	630.000000
71.561553	622.000000
72.010550	644.000000
72.459511	668.000000
72.908437	678.000000
73.357328	684.000000
73.806184	699.000000
74.255004	693.000000
74.703789	767.000000
75.152539	763.000000
75.601253	768.000000
76.049932	819.000000
76.498576	838.000000
76.947184	876.000000
77.395757	919.000000
77.844295	896.000000
78.292798	922.000000
78.741265	905.000000
79.189697	916.000000
79.638094	898.000000
80.086455	873.000000
80.534781	822.000000
80.983072	824.000000
81.431328	790.000000
81.879548	753.000000
82.327733	746.000000
82.775883	715.000000
83.223997	676.000000
83.672077	661.000000
84.120121	652.000000
84.568129	639.000000
85.016103	633.000000
85.464041	633.000000
85.911944	621.000000
86.359812	622.000000
86.807644	607.000000
87.255442	603.000000
87.703204	591.000000
88.150931	599.000000
88.598622	569.000000
89.046278	601.000000
89.493900	601.000000
89.941485	617.000000
90.389036	580.000000
90.836552	591.000000
91.284032	577.000000
91.731477	592.000000
92.178887	583.000000
92.626261	580.000000
93.073600	574.000000
93.520905	585.000000
93.968174	568.000000
94.415407	593.000000
94.862606	572.000000
95.309769	585.000000
95.756897	571.000000
96.203990	564.000000
96.651048	578.000000
97.098071	583.000000
97.545058	576.000000
97.992010	571.000000
98.438928	575.000000
98.885809	569.000000
99.332656	570.000000
99.779468	583.000000
100.226244	573.000000
100.672985	591.000000
101.119691	571.000000
101.566362	586.000000
102.012998	577.000000
102.459598	579.000000
102.906164	583.000000
103.352694	584.000000
103.799189	607.000000
104.245649	605.000000
104.692074	574.000000
105.138464	580.000000
105.584818	595.000000
106.031138	587.000000
106.477422	590.000000
106.923671	592.000000
107.369885	592.000000
107.816064	607.000000
108.262208	599.000000
108.708316	600.000000
109.154390	589.000000
109.600428	590.000000
110.046431	604.000000
110.492400	610.000000
110.938333	612.000000
111.384231	601.000000
111.830093	597.000000
112.275921	611.000000
112.721714	608.000000
113.167471	592.000000
113.613194	591.000000
114.058881	615.000000
114.504534	615.000000
114.950151	616.000000
115.395733	612.000000
115.841280	609.000000
116.286792	622.000000
116.732269	606.000000
117.177710	625.000000
117.623117	653.000000
118.068489	615.000000
118.513825	632.000000
118.959127	641.000000
119.404393	659.000000
119.849625	639.000000
120.294821	633.000000
120.739982	664.000000
121.185109	639.000000
121.630200	650.000000
122.075256	671.000000
122.520277	658.000000
122.965263	687.000000
123.410214	676.000000
123.855130	693.000000
124.300011	669.000000
124.744857	711.000000
125.189668	707.000000
125.634444	712.000000
126.079184	697.000000
126.523890	708.000000
126.968561	692.000000
127.413197	702.000000
127.857798	716.000000
128.302363	718.000000
128.746894	720.000000
129.191390	713.000000
129.635850	655.000000
130.080276	687.000000
130.524667	694.000000
130.969023	660.000000
131.413343	676.000000
131.857629	667.000000
132.301880	674.000000
132.746095	631.000000
133.190276	647.000000
133.634422	637.000000
134.078533	630.000000
134.522609	635.000000
134.966649	619.000000
135.410655	616.000000
135.854626	636.000000
136.298562	635.000000
136.742463	620.000000
137.186329	626.000000
137.630160	613.000000
138.073956	607.000000
138.517717	605.000000
138.961443	594.000000
139.405135	608.000000
139.848791	598.000000
140.292412	596.000000
140.735999	611.000000
141.179550	600.000000
141.623067	602.000000
142.066548	590.000000
142.509995	594.000000
142.953406	594.000000
143.396783	576.000000
143.840125	589.000000
144.283432	587.000000
144.726704	581.000000
145.169941	584.000000
145.613143	584.000000
146.056310	586.000000
146.499443	597.000000
146.942540	575.000000
147.385603	585.000000
147.828630	579.000000
148.271623	597.000000
148.714581	580.000000
149.157504	594.000000
149.600392	573.000000
150.043245	565.000000
150.486063	585.000000
150.928847	587.000000
151.371595	575.000000
151.814309	558.000000
152.256987	587.000000
152.699631	578.000000
153.142240	575.000000
153.584814	566.000000
154.027353	551.000000
154.469858	580.000000
154.912327	570.000000
155.354762	584.000000
155.797162	578.000000
156.239527	596.000000
156.681857	588.000000
157.124152	562.000000
157.566412	575.000000
158.008638	552.000000
158.450828	582.000000
158.892984	563.000000
159.335105	573.000000
159.777191	578.000000
160.219242	575.000000
160.661259	569.000000
161.103241	592.000000
161.545187	565.000000
161.987099	565.000000
162.428977	581.000000
162.870819	567.000000
163.312626	575.000000
163.754399	593.000000
164.196137	570.000000
164.637840	583.000000
165.079508	554.000000
165.521142	572.000000
165.962740	568.000000
166.404304	581.000000
166.845833	556.000000
167.287328	579.000000
167.728787	578.000000
168.170212	572.000000
168.611602	569.000000
169.052957	580.000000
169.494277	572.000000
169.935563	572.000000
170.376813	561.000000
170.818029	568.000000
171.259211	571.000000
171.700357	572.000000
172.141469	571.000000
172.582546	588.000000
173.023588	575.000000
173.464595	587.000000
173.905568	576.000000
174.346506	549.000000
174.787409	566.000000
175.228277	575.000000
175.669111	567.000000
176.109910	565.000000
176.550674	567.000000
176.991403	583.000000
177.432098	567.000000
177.872758	585.000000
178.313383	565.000000
178.753973	573.000000
179.194529	578.000000
179.635050	586.000000
180.075536	563.000000
180.515988	574.000000
180.956405	589.000000
181.396787	564.000000
181.837134	564.000000
182.277447	574.000000
182.717725	578.000000
183.157968	574.000000
183.598177	569.000000
184.038350	571.000000
184.478490	577.000000
184.918594	559.000000
185.358664	571.000000
185.798699	578.000000
186.238699	563.000000
186.678665	575.000000
187.118596	573.000000
187.558492	565.000000
187.998354	574.000000
188.438181	580.000000
188.877973	569.000000
189.317731	576.000000
189.757454	582.000000
190.197142	585.000000
190.636796	583.000000
191.076414	574.000000
191.515999	573.000000
191.955548	600.000000
192.395063	570.000000
192.834544	565.000000
193.273989	560.000000
193.713400	578.000000
194.152777	555.000000
194.592118	572.000000
195.031425	567.000000
195.470698	543.000000
195.909936	585.000000
196.349139	576.000000
196.788307	565.000000
197.227441	572.000000
197.666541	572.000000
198.105605	580.000000
198.544635	574.000000
198.983631	599.000000
199.422591	568.000000
199.861518	579.000000
200.300409	586.000000
200.739266	580.000000
201.178089	576.000000
201.616876	577.000000
202.055629	575.000000
202.494348	575.000000
202.933032	559.000000
203.371681	572.000000
203.810296	576.000000
204.248876	577.000000
204.687422	574.000000
205.125933	572.000000
205.564409	565.000000
206.002851	572.000000
206.441258	572.000000
206.879631	578.000000
207.317969	557.000000
207.756273	578.000000
208.194542	575.000000
208.632776	586.000000
209.070976	573.000000
209.509141	582.000000
209.947272	589.000000
210.385368	577.000000
210.823430	567.000000
211.261457	583.000000
211.699449	574.000000
212.137407	594.000000
212.575331	581.000000
213.013220	576.000000
213.451074	576.000000
213.888894	584.000000
214.326679	596.000000
214.764430	600.000000
215.202146	604.000000
215.639828	592.000000
216.077475	585.000000
216.515087	593.000000
216.952666	580.000000
217.390209	608.000000
217.827718	613.000000
218.265193	634.000000
218.702633	602.000000
219.140038	615.000000
219.577410	617.000000
220.014746	618.000000
220.452048	612.000000
220.889316	628.000000
221.326549	613.000000
221.763747	626.000000
222.200911	634.000000
222.638041	628.000000
223.075136	619.000000
223.512197	630.000000
223.949223	639.000000
224.386215	606.000000
224.823172	610.000000
225.260094	636.000000
225.696983	619.000000
226.133836	632.000000
226.570656	629.000000
227.007441	625.000000
227.444191	606.000000
227.880907	622.000000
228.317588	606.000000
228.754235	631.000000
229.190848	592.000000
229.627426	607.000000
230.063970	587.000000
230.500479	596.000000
230.936954	612.000000
231.373394	601.000000
231.809800	601.000000
232.246172	614.000000
232.682509	600.000000
233.118811	574.000000
233.555080	601.000000
233.991313	574.000000
234.427513	583.000000
234.863678	593.000000
235.299808	595.000000
235.735904	598.000000
236.171966	605.000000
236.607993	588.000000
237.043986	592.000000
237.479944	602.000000
237.915869	607.000000
238.351758	612.000000
238.787613	607.000000
239.223434	617.000000
239.659221	627.000000
240.094973	622.000000
240.530691	635.000000
240.966374	622.000000
241.402023	641.000000
241.837637	661.000000
242.273218	658.000000
242.708763	693.000000
243.144275	701.000000
243.579752	712.000000
244.015195	754.000000
244.450603	787.000000
244.885977	830.000000
245.321316	850.000000
245.756622	843.000000
246.191893	914.000000
246.627129	932.000000
247.062331	954.000000
247.497499	967.000000
247.932633	1013.000000
248.367732	1029.000000
248.802796	1034.000000
249.237827	1044.000000
249.672823	1031.000000
250.107785	1060.000000
250.542712	1001.000000
250.977605	980.000000
251.412464	953.000000
251.847289	895.000000
252.282079	886.000000
252.716835	875.000000
253.151556	861.000000
253.586243	828.000000
254.020896	773.000000
254.455515	762.000000
254.890099	751.000000
255.324649	761.000000
255.759165	723.000000
256.193646	729.000000
256.628093	710.000000
257.062506	704.000000
257.496884	685.000000
257.931229	664.000000
258.365538	697.000000
258.799814	676.000000
259.234055	663.000000
259.668262	656.000000
260.102435	664.000000
260.536574	688.000000
260.970678	671.000000
261.404748	666.000000
261.838783	708.000000
262.272785	679.000000
262.706752	694.000000
263.140685	696.000000
263.574584	682.000000
264.008448	704.000000
264.442278	689.000000
264.876074	729.000000
265.309835	716.000000
265.743563	725.000000
266.177256	753.000000
266.610915	765.000000
267.044539	783.000000
267.478130	810.000000
267.911686	805.000000
268.345208	819.000000
268.778696	831.000000
269.212149	871.000000
269.645568	870.000000
270.078953	886.000000
270.512304	914.000000
270.945621	918.000000
271.378903	947.000000
271.812151	966.000000
272.245365	989.000000
272.678545	967.000000
273.111690	958.000000
273.544802	977.000000
273.977879	984.000000
274.410922	936.000000
274.843931	932.000000
275.276905	930.000000
275.709845	872.000000
276.142752	848.000000
276.575624	861.000000
277.008461	843.000000
277.441265	811.000000
277.874034	773.000000
278.306770	764.000000
278.739471	761.000000
279.172138	759.000000
279.604770	735.000000
280.037369	737.000000
280.469933	718.000000
280.902464	680.000000
281.334960	672.000000
281.767422	677.000000
282.199849	650.000000
282.632243	647.000000
283.064602	646.000000
283.496928	638.000000
283.929219	630.000000
284.361476	652.000000
284.793699	640.000000
285.225888	630.000000
285.658042	635.000000
286.090163	622.000000
286.522249	642.000000
286.954301	633.000000
287.386319	612.000000
287.818303	602.000000
288.250253	629.000000
288.682169	615.000000
289.114050	611.000000
289.545898	610.000000
289.977711	611.000000
290.409491	603.000000
290.841236	611.000000
291.272947	602.000000
291.704624	588.000000
292.136267	599.000000
292.567875	605.000000
292.999450	601.000000
293.430991	611.000000
293.862497	606.000000
294.293969	599.000000
294.725408	603.000000
295.156812	591.000000
295.588182	606.000000
296.019518	583.000000
296.450820	594.000000
296.882088	617.000000
297.313322	609.000000
297.744522	589.000000
298.175687	602.000000
298.606819	612.000000
299.037917	577.000000
299.468980	594.000000
299.900010	599.000000
300.331005	613.000000
300.761966	590.000000
301.192894	596.000000
301.623787	587.000000
302.054646	579.000000
302.485471	599.000000
302.916263	601.000000
303.347020	575.000000
303.777743	593.000000
304.208432	594.000000
304.639087	592.000000
305.069708	577.000000
305.500295	580.000000
305.930848	577.000000
306.361367	599.000000
306.791852	568.000000
307.222302	593.000000
307.652719	583.000000
308.083102	587.000000
308.513451	593.000000
308.943766	602.000000
309.374047	594.000000
309.804294	580.000000
310.234506	578.000000
310.664685	590.000000
311.094830	584.000000
311.524941	570.000000
311.955018	590.000000
312.385061	569.000000
312.815070	569.000000
313.245045	567.000000
313.674986	572.000000
314.104892	584.000000
314.534765	575.000000
314.964604	586.000000
315.394410	581.000000
315.824181	594.000000
316.253918	570.000000
316.683621	578.000000
317.113290	586.000000
317.542925	576.000000
317.972527	579.000000
318.402094	571.000000
318.831627	579.000000
319.261127	581.000000
319.690592	568.000000
320.120024	582.000000
320.549421	573.000000
320.978785	573.000000
321.408115	571.000000
321.837411	579.000000
322.266672	573.000000
322.695900	563.000000
323.125094	564.000000
323.554254	575.000000
323.983381	571.000000
324.412473	575.000000
324.841531	586.000000
325.270556	571.000000
325.699546	567.000000
326.128503	572.000000
326.557425	567.000000
326.986314	579.000000
327.415169	561.000000
327.843990	579.000000
328.272777	572.000000
328.701530	557.000000
329.130249	565.000000
329.558935	577.000000
329.987586	578.000000
330.416204	566.000000
330.844788	563.000000
331.273337	578.000000
331.701853	576.000000
332.130336	561.000000
332.558784	574.000000
332.987198	584.000000
333.415579	571.000000
333.843925	577.000000
334.272238	573.000000
334.700517	573.000000
335.128762	579.000000
335.556973	575.000000
335.985150	576.000000
336.413294	569.000000
336.841404	570.000000
337.269479	585.000000
337.697521	595.000000
338.125529	564.000000
338.553504	579.000000
338.981444	576.000000
339.409351	584.000000
339.837223	563.000000
340.265062	596.000000
340.692867	581.000000
341.120638	575.000000
341.548376	596.000000
341.976080	563.000000
342.403749	568.000000
342.831385	575.000000
343.258987	591.000000
343.686556	594.000000
344.114090	571.000000
344.541591	560.000000
344.969058	581.000000
345.396491	579.000000
345.823890	550.000000
346.251256	581.000000
346.678588	578.000000
347.105886	568.000000
347.533150	571.000000
347.960380	570.000000
348.387577	596.000000
348.814740	569.000000
349.241869	578.000000
349.668964	580.000000
350.096025	594.000000
350.523053	597.000000
350.950047	577.000000
351.377007	576.000000
351.803933	596.000000
352.230826	580.000000
352.657685	581.000000
353.084510	585.000000
353.511301	590.000000
353.938059	585.000000
354.364783	598.000000
354.791473	582.000000
355.218129	574.000000
355.644752	581.000000
356.071341	576.000000
356.497896	591.000000
356.924417	584.000000
357.350905	593.000000
357.777359	586.000000
358.203779	587.000000
358.630165	589.000000
359.056518	587.000000
359.482837	576.000000
359.909122	594.000000
360.335374	597.000000
360.761592	595.000000
361.187776	588.000000
361.613926	597.000000
362.040043	576.000000
362.466126	608.000000
362.892175	586.000000
363.318191	588.000000
363.744173	595.000000
364.170121	609.000000
364.596035	593.000000
365.021916	620.000000
365.447763	601.000000
365.873577	589.000000
366.299357	603.000000
366.725103	623.000000
367.150815	619.000000
367.576494	606.000000
368.002139	633.000000
368.427750	621.000000
368.853328	628.000000
369.278872	646.000000
369.704382	632.000000
370.129859	694.000000
370.555302	673.000000
370.980711	690.000000
371.406087	711.000000
371.831429	703.000000
372.256737	734.000000
372.682012	752.000000
373.107253	789.000000
373.532461	796.000000
373.957635	860.000000
374.382775	887.000000
374.807881	984.000000
375.232954	976.000000
375.657994	1064.000000
376.082999	1072.000000
376.507971	1129.000000
376.932910	1171.000000
377.357814	1222.000000
377.782686	1253.000000
378.207523	1245.000000
378.632327	1295.000000
379.057097	1282.000000
379.481834	1250.000000
379.906537	1264.000000
380.331207	1167.000000
380.755843	1150.000000
381.180445	1063.000000
381.605014	1041.000000
382.029549	970.000000
382.454050	899.000000
382.878518	875.000000
383.302952	805.000000
383.727353	803.000000
384.151720	764.000000
384.576054	733.000000
385.000354	737.000000
385.424620	685.000000
385.848853	686.000000
386.273052	650.000000
386.697218	636.000000
387.121350	635.000000
387.545448	627.000000
387.969513	612.000000
388.393545	598.000000
388.817543	610.000000
389.241507	615.000000
389.665438	583.000000
390.089335	599.000000
390.513199	590.000000
390.937029	591.000000
391.360825	596.000000
391.784588	578.000000
392.208318	579.000000
392.632014	583.000000
393.055676	591.000000
393.479305	584.000000
393.902900	577.000000
394.326462	570.000000
394.749990	593.000000
395.173485	587.000000
395.596946	592.000000
396.020374	583.000000
396.443768	565.000000
396.867129	580.000000
397.290456	576.000000
397.713750	575.000000
398.137010	581.000000
398.560237	574.000000
398.983430	580.000000
399.406589	582.000000
399.829716	561.000000
400.252808	577.000000
400.675867	581.000000
401.098893	560.000000
401.521885	575.000000
401.944844	572.000000
402.367769	585.000000
402.790661	578.000000
403.213519	568.000000
403.636344	586.000000
404.059135	570.000000
404.481893	562.000000
404.904618	577.000000
405.327308	582.000000
405.749966	573.000000
406.172590	580.000000
406.595180	583.000000
407.017737	572.000000
407.440261	554.000000
407.862751	573.000000
408.285208	581.000000
408.707631	555.000000
409.130021	579.000000
409.552377	570.000000
409.974700	574.000000
410.396990	581.000000
410.819246	565.000000
411.241469	562.000000
411.663658	586.000000
412.085814	574.000000
412.507936	582.000000
412.930025	576.000000
413.352080	577.000000
413.774102	564.000000
414.196091	577.000000
414.618046	562.000000
415.039968	571.000000
415.461857	582.000000
415.883712	570.000000
416.305533	556.000000
416.727321	580.000000
417.149076	567.000000
417.570798	581.000000
417.992486	584.000000
418.414140	559.000000
418.835762	570.000000
419.257349	562.000000
419.678904	564.000000
420.100425	571.000000
420.521913	572.000000
420.943367	567.000000
421.364788	561.000000
421.786175	569.000000
422.207530	575.000000
422.628850	569.000000
423.050138	577.000000
423.471392	581.000000
423.892613	574.000000
424.313800	567.000000
424.734954	565.000000
425.156075	585.000000
425.577162	567.000000
425.998216	576.000000
426.419237	562.000000
426.840224	578.000000
427.261178	580.000000
427.682098	578.000000
428.102986	584.000000
428.523840	591.000000
428.944660	573.000000
429.365447	564.000000
429.786201	569.000000
430.206922	563.000000
430.627609	570.000000
431.048263	563.000000
431.468884	572.000000
431.889471	564.000000
432.310025	579.000000
432.730546	578.000000
433.151033	566.000000
433.571487	581.000000
433.991908	569.000000
434.412295	547.000000
434.832649	574.000000
435.252970	579.000000
435.673258	561.000000
436.093512	558.000000
436.513733	583.000000
436.933921	568.000000
437.354075	593.000000
437.774196	594.000000
438.194284	580.000000
438.614339	580.000000
439.034360	584.000000
439.454348	571.000000
439.874303	589.000000
440.294224	579.000000
440.714112	582.000000
441.133967	576.000000
441.553789	572.000000
441.973577	573.000000
442.393332	584.000000
442.813054	570.000000
443.232743	562.000000
443.652398	564.000000
444.072020	573.000000
444.491609	590.000000
444.911165	571.000000
445.330687	578.000000
445.750176	568.000000
446.169632	582.000000
446.589055	577.000000
447.008444	572.000000
447.427801	567.000000
447.847124	569.000000
448.266413	589.000000
448.685670	573.000000
449.104893	571.000000
449.524083	561.000000
449.943240	573.000000
450.362364	579.000000
450.781454	578.000000
451.200512	592.000000
451.619536	582.000000
452.038526	572.000000
452.457484	566.000000
452.876408	563.000000
453.295300	579.000000
453.714158	565.000000
454.132983	562.000000
454.551774	573.000000
454.970533	565.000000
455.389258	574.000000
455.807950	580.000000
456.226609	553.000000
456.645235	581.000000
457.063827	573.000000
457.482387	549.000000
457.900913	568.000000
458.319406	585.000000
458.737866	583.000000
459.156293	583.000000
459.574686	590.000000
459.993047	575.000000
460.411374	577.000000
460.829668	570.000000
461.247929	579.000000
461.666157	582.000000
462.084351	576.000000
462.502513	564.000000
462.920641	571.000000
463.338736	578.000000
463.756798	573.000000
464.174827	576.000000
464.592823	581.000000
465.010786	562.000000
465.428715	568.000000
465.846612	574.000000
466.264475	572.000000
466.682305	576.000000
467.100102	565.000000
467.517866	577.000000
467.935597	585.000000
468.353295	569.000000
468.770959	573.000000
469.188591	572.000000
469.606189	568.000000
470.023755	585.000000
470.441287	576.000000
470.858786	573.000000
471.276252	552.000000
471.693685	567.000000
472.111084	570.000000
472.528451	582.000000
472.945785	577.000000
473.363085	583.000000
473.780353	583.000000
474.197587	569.000000
474.614788	579.000000
475.031957	577.000000
475.449092	577.000000
475.866194	572.000000
476.283263	574.000000
476.700299	572.000000
477.117302	556.000000
477.534272	573.000000
477.951208	580.000000
478.368112	579.000000
478.784983	570.000000
479.201820	568.000000
479.618625	567.000000
480.035396	581.000000
480.452135	573.000000
480.868840	569.000000
481.285513	574.000000
481.702152	559.000000
482.118758	588.000000
482.535331	562.000000
482.951872	570.000000
483.368379	592.000000
483.784853	592.000000
484.201294	574.000000
484.617702	563.000000
485.034077	581.000000
485.450420	578.000000
485.866729	582.000000
486.283005	589.000000
486.699248	569.000000
487.115458	580.000000
487.531635	575.000000
487.947779	589.000000
488.363890	587.000000
488.779968	574.000000
489.196013	567.000000
489.612025	583.000000
490.028004	583.000000
490.443950	579.000000
490.859863	564.000000
491.275744	566.000000
491.691591	598.000000
492.107405	579.000000
492.523186	576.000000
492.938934	572.000000
493.354649	572.000000
493.770332	573.000000
494.185981	568.000000
494.601597	547.000000
495.017181	560.000000
495.432731	579.000000
495.848249	556.000000
496.263733	581.000000
496.679185	573.000000
497.094603	576.000000
497.509989	571.000000
497.925341	578.000000
498.340661	560.000000
498.755948	566.000000
499.171202	591.000000
499.586423	582.000000
500.001611	572.000000
500.416766	583.000000
500.831888	588.000000
501.246977	558.000000
501.662033	578.000000
502.077057	580.000000
502.492047	578.000000
502.907005	583.000000
503.321929	589.000000
503.736821	587.000000
504.151680	573.000000
504.566506	586.000000
504.981299	576.000000
505.396059	584.000000
505.810786	574.000000
506.225480	594.000000
506.640141	593.000000
507.054770	583.000000
507.469365	566.000000
507.883928	587.000000
508.298458	579.000000
508.712955	584.000000
509.127419	588.000000
509.541850	595.000000
509.956248	582.000000
510.370614	578.000000
510.784946	587.000000
511.199246	572.000000
511.613513	581.000000
512.027746	579.000000
512.441947	578.000000
512.856116	562.000000
513.270251	579.000000
513.684353	596.000000
514.098423	573.000000
514.512460	569.000000
514.926464	598.000000
515.340435	584.000000
515.754373	566.000000
516.168278	576.000000
516.582151	580.000000
516.995990	586.000000
517.409797	580.000000
517.823571	578.000000
518.237312	578.000000
518.651021	584.000000
519.064696	578.000000
519.478339	574.000000
519.891949	588.000000
520.305526	570.000000
520.719070	589.000000
521.132581	593.000000
521.546060	579.000000
521.959506	581.000000
522.372919	570.000000
522.786299	580.000000
523.199646	584.000000
523.612961	581.000000
524.026243	587.000000
524.439492	600.000000
524.852708	581.000000
525.265891	589.000000
525.679042	587.000000
526.092160	586.000000
526.505245	575.000000
526.918297	600.000000
527.331316	592.000000
527.744303	574.000000
528.157257	585.000000
528.570178	573.000000
528.983066	583.000000
529.395922	584.000000
529.808745	592.000000
530.221535	602.000000
530.634292	581.000000
531.047017	578.000000
531.459708	620.000000
531.872367	604.000000
532.284994	590.000000
532.697587	600.000000
533.110148	591.000000
533.522676	594.000000
533.935171	597.000000
534.347634	597.000000
534.760063	609.000000
535.172461	585.000000
535.584825	599.000000
535.997156	589.000000
536.409455	580.000000
536.821721	593.000000
537.233955	585.000000
537.646155	587.000000
538.058323	578.000000
538.470459	573.000000
538.882561	587.000000
539.294631	598.000000
539.706668	583.000000
540.118672	584.000000
540.530644	586.000000
540.942583	567.000000
541.354489	571.000000
541.766363	593.000000
542.178204	596.000000
542.590012	582.000000
543.001788	571.000000
543.413530	579.000000
543.825240	586.000000
544.236918	591.000000
544.648563	571.000000
545.060175	577.000000
545.471754	566.000000
545.883301	589.000000
546.294815	562.000000
546.706296	574.000000
547.117745	568.000000
547.529161	603.000000
547.940544	586.000000
548.351895	576.000000
548.763213	595.000000
549.174498	577.000000
549.585751	584.000000
549.996971	579.000000
550.408159	601.000000
550.819313	558.000000
551.230435	572.000000
551.641525	597.000000
552.052582	591.000000
552.463606	574.000000
552.874597	585.000000
553.285556	574.000000
553.696483	579.000000
554.107376	600.000000
554.518237	603.000000
554.929066	599.000000
555.339862	595.000000
555.750625	598.000000
556.161355	587.000000
556.572053	593.000000
556.982718	611.000000
557.393351	595.000000
557.803951	620.000000
558.214519	616.000000
558.625054	632.000000
559.035556	629.000000
559.446026	637.000000
559.856463	671.000000
560.266867	649.000000
560.677239	696.000000
561.087578	692.000000
561.497885	696.000000
561.908159	718.000000
562.318401	701.000000
562.728610	716.000000
563.138786	732.000000
563.548930	765.000000
563.959041	734.000000
564.369120	747.000000
564.779166	730.000000
565.189179	721.000000
565.599160	698.000000
566.009109	695.000000
566.419024	689.000000
566.828908	686.000000
567.238758	667.000000
567.648577	649.000000
568.058362	684.000000
568.468115	627.000000
568.877836	619.000000
569.287524	627.000000
569.697179	614.000000
570.106802	605.000000
570.516392	608.000000
570.925950	601.000000
571.335475	588.000000
571.744968	571.000000
572.154428	610.000000
572.563856	582.000000
572.973251	591.000000
573.382614	580.000000
573.791944	588.000000
574.201242	565.000000
574.610507	584.000000
575.019739	568.000000
575.428939	580.000000
575.838107	575.000000
576.247242	590.000000
576.656345	584.000000
577.065415	580.000000
577.474452	579.000000
577.883457	596.000000
578.292430	575.000000
578.701370	593.000000
579.110277	573.000000
579.519153	588.000000
579.927995	581.000000
580.336805	575.000000
580.745583	577.000000
581.154328	571.000000
581.563041	580.000000
581.971721	592.000000
582.380369	574.000000
582.788984	554.000000
583.197567	578.000000
583.606117	575.000000
584.014635	572.000000
584.423120	575.000000
584.831573	574.000000
585.239994	577.000000
585.648382	593.000000
586.056738	577.000000
586.465061	583.000000
586.873352	577.000000
587.281610	575.000000
587.689836	587.000000
588.098029	585.000000
588.506190	574.000000
588.914319	560.000000
589.322415	584.000000
589.730478	582.000000
590.138510	581.000000
590.546508	567.000000
590.954475	566.000000
591.362409	582.000000
591.770310	576.000000
592.178179	581.000000
592.586016	564.000000
592.993820	562.000000
593.401592	584.000000
593.809332	574.000000
594.217039	583.000000
594.624714	565.000000
595.032356	566.000000
595.439966	575.000000
595.847543	573.000000
596.255088	555.000000
596.662601	571.000000
597.070081	577.000000
597.477529	572.000000
597.884945	603.000000
598.292328	567.000000
598.699679	584.000000
599.106997	577.000000
599.514283	569.000000
